#1 - lambda_o2:           Wavelength of the binned sample in nanometers.
#2 - targetsignal_in_o2:  Number of target photons detected in order 2 during the transit (T_14).
#3 - totalnoise_in_o2:    Uncertainty on the number of photons in order 2 during transit based on photon noise sqrt(signal) and readout noise
#4 - targetsignal_out_o2: Number of target photons detected in order 2 out of transit (T_14).
#5 - totalnoise_out_o2:   Uncertainty on the number of photons in order 2 out of based on photon noise sqrt(signal) and readout noise
#6 - snr2_in:             Number of photons divided by the uncertainty in order 2 during transit.
#7 - snr2_out:            Number of photons divided by the uncertainty in order 2 out of transit.
#8 - depth_signal_o2:     Transit depth signal relative to the total star measured signal.
#9 - depth_noise_o2:      Transit depth noise relative to the total star measured signal.
#10- fakedepth_o2:        One realization of the transit depth signal relative to the total star measured signal.
#11- resolving_power_o2:  lambda over delta-lambda where the binned sample is considered.
#12- satflag_o2:          Set to 2 if any of the native pixel is saturated.
     600.8         135529487.7         11820.49025         138410694.4         11941.74177      11465.640      11590.495             0.9791836406  0.00012366685     0.97899694               643.8              1
     601.7         138841660.1         11959.77266         141793292.5         12082.54090      11609.055      11735.387             0.9791835542  0.00012222622     0.97921167               644.8              1
     602.6         143227886.2         12141.76215         146272744.3         12266.50913      11796.301      11924.562             0.9791836951  0.00012039953     0.97906861               645.8              1
     603.6         154748796.1         12607.27164         158038595.4         12737.07570      12274.567      12407.761             0.9791835704  0.00011599400     0.97913459               646.8              1
     604.5         160935270.0         12850.28295         164356579.6         12982.72243      12523.870      12659.639             0.9791836166  0.00011383504     0.97937560               647.8              1
     605.4         163011512.0         12930.81645         166476965.2         13064.12903      12606.436      12743.059             0.9791835872  0.00011313944     0.97942723               648.8              1
     606.4         165122690.6         13012.19400         168633007.3         13146.38769      12689.842      12827.327             0.9791836914  0.00011244628     0.97907821               649.8              1
     607.3         175273355.7         13396.56141         178999485.9         13534.91736      13083.459      13225.015             0.9791835705  0.00010929825     0.97932916               650.8              1
     608.2         175274946.0         13396.62077         179001109.7         13534.97734      13083.519      13225.076             0.9791835723  0.00010929778     0.97917898               651.8              1
     609.2         179468108.5         13552.21792         183283413.2         13692.25749      13242.711      13385.916             0.9791835788  0.00010807962     0.97925181               652.8              1
     610.1         181987461.1         13644.85116         185856334.2         13785.89265      13337.446      13481.632             0.9791835285  0.00010736899     0.97918516               653.8              1
     611.0         189607859.1         13921.29165         193638709.4         14065.31946      13619.990      13767.104             0.9791836541  0.00010531045     0.97917142               654.8              1
     612.0         190664427.7         13959.18800         194717743.2         14103.62525      13658.705      13806.219             0.9791836352  0.00010503527     0.97920712               655.8              1
     612.9         196122221.5         14153.32906         200291562.7         14299.86240      13856.968      14006.538             0.9791836401  0.00010365107     0.97911155               656.8              1
     613.8         194038831.5         14079.53598         198163895.1         14225.27318      13781.621      13930.411             0.9791835760  0.00010417222     0.97899274               657.8              1
     614.8         209412309.6         14615.29376         213864190.3         14766.81050      14328.300      14482.761             0.9791836082  0.00010052019     0.97917312               658.8              1
     615.7         208761420.7         14593.00938         213199457.4         14744.28565      14305.577      14459.802             0.9791836398  0.00010066620     0.97914248               659.8              1
     616.6         197281490.6         14194.22392         201475490.1         14341.19911      13898.716      14048.720             0.9791835750  0.00010336481     0.97931833               660.8              1
     617.6         223192029.0         15079.34120         227936844.9         15235.85728      14801.179      14960.553             0.9791836379  9.7587635E-05     0.97910252               661.8              1
     618.5         237948567.2         15560.94692         243007092.7         15722.64592      15291.394      15455.865             0.9791836302  9.4747376E-05     0.97910132               662.8              1
     619.4         233748926.4         15425.41501         238718176.9         15585.65619      15153.494      15316.530             0.9791836106  9.5526917E-05     0.97919544               663.8              1
     620.4         249542530.9         15929.12530         254847521.0         16094.78248      15665.802      15834.170             0.9791836700  9.2703354E-05     0.97910028               664.8              1
     621.3         249709513.5         15934.36586         255018069.2         16100.07985      15671.130      15839.553             0.9791836094  9.2675004E-05     0.97912986               665.8              1
     622.2         254118773.9         16072.12730         259521074.3         16239.32192      15811.147      15981.029             0.9791835774  9.1937212E-05     0.97926813               666.8              1
     623.2         258063027.7         16194.36722         263549162.5         16362.87458      15935.357      16106.532             0.9791836379  9.1294125E-05     0.97934193               667.8              1
     624.1         265481724.2         16421.82165         271125567.5         16592.77160      16166.399      16339.981             0.9791836550  9.0125542E-05     0.97897645               668.8              1
     625.0         265303475.5         16416.39356         270943552.3         16587.28592      16160.887      16334.411             0.9791835724  9.0153005E-05     0.97902997               669.8              1
     626.0         263598947.6         16364.39579         269202782.1         16534.72963      16108.077      16281.051             0.9791835937  9.0417194E-05     0.97925596               670.8              1
     626.9         286844243.3         17059.85772         292942229.1         17237.65445      16813.988      16994.321             0.9791836577  8.7030160E-05     0.97907229               671.8              1
     627.8         287022257.6         17065.07426         293124026.6         17242.92692      16819.280      16999.668             0.9791836614  8.7005902E-05     0.97920065               672.8              1
     628.8         298788410.1         17406.40434         305140343.2         17587.91759      17165.430      17349.430             0.9791835682  8.5453409E-05     0.97918274               673.8              1
     629.7         302107102.8         17501.47436         308529612.2         17684.00730      17261.809      17446.815             0.9791834911  8.5032862E-05     0.97930885               674.8              1
     630.6         310699598.8         17745.25573         317304776.3         17930.40095      17508.883      17696.469             0.9791834918  8.3977180E-05     0.97916702               675.8              1
     631.6         310077268.6         17727.71194         316669187.9         17912.66842      17491.105      17678.504             0.9791835784  8.4052093E-05     0.97931369               676.8              1
     632.5         325008673.9         18143.95701         331918019.1         18333.37179      17912.778      18104.581             0.9791835790  8.2317928E-05     0.97928479               677.8              1
     633.4         332745750.5         18355.93235         339819550.5         18547.61582      18127.423      18321.468             0.9791836579  8.1468098E-05     0.97921165               678.8              1
     634.4         342451831.9         18618.44069         349731970.5         18812.93365      18393.153      18589.975             0.9791836629  8.0445236E-05     0.97923341               679.8              1
     635.3         352750881.3         18892.99826         360249980.5         19090.42908      18670.985      18870.712             0.9791836236  7.9408961E-05     0.97923754               680.8              1
     636.2         349630391.5         18810.23374         357063132.9         19006.77866      18587.243      18786.094             0.9791836773  7.9717828E-05     0.97920625               681.8              1
     637.2         365847604.4         19236.47854         373625125.1         19437.58285      19018.429      19221.789             0.9791836252  7.8158509E-05     0.97912710               682.8              1
     638.1         371559462.9         19384.37424         379458449.7         19587.06082      19167.989      19372.914             0.9791835262  7.7635158E-05     0.97929868               683.8              1
     639.0         377916786.3         19547.66708         385950865.8         19752.09781      19333.089      19539.741             0.9791836728  7.7067518E-05     0.97921673               684.8              1
     640.0         368637510.7         19308.85840         376474358.3         19510.73705      19091.626      19295.753             0.9791835821  7.7901275E-05     0.97933634               685.8              1
     640.9         386635737.1         19769.42688         394855196.5         19976.22834      19557.256      19766.254             0.9791836108  7.6313215E-05     0.97916085               686.8              1
     641.8         388332514.3         19812.29457         396588032.0         20019.55379      19600.582      19810.034             0.9791836440  7.6169564E-05     0.97920604               687.8              1
     642.8         403563199.3         20193.01120         412142504.1         20404.33792      19985.291      20198.769             0.9791836447  7.4923357E-05     0.97908933               688.8              1
     643.7         398910788.8         20077.48218         407391193.0         20287.57489      19868.566      20080.823             0.9791836338  7.5295983E-05     0.97912072               689.8              1
     644.6         418763685.1         20565.94727         427666140.9         20781.25701      20361.994      20579.416             0.9791836319  7.3752139E-05     0.97915370               690.8              1
     645.6         423048449.4         20669.85611         432042004.9         20886.27556      20466.928      20685.450             0.9791836086  7.3434158E-05     0.97925910               691.8              1
     646.5         418056583.0         20548.74899         426944006.2         20763.87508      20344.625      20561.865             0.9791836328  7.3805113E-05     0.97916786               692.8              1
     647.4         435312285.2         20964.41717         444566551.1         21183.98105      20764.340      20985.978             0.9791836208  7.2551767E-05     0.97917301               693.8              1
     648.4         450867326.5         21332.17824         460452276.5         21555.66697      21135.550      21361.078             0.9791836191  7.1488069E-05     0.97935260               694.8              1
     649.3         432513238.9         20897.55347         441708010.5         21116.40387      20696.836      20917.767             0.9791835979  7.2749638E-05     0.97918612               695.8              1
     650.2         439022194.2         21052.71233         448355339.5         21273.21888      20853.474      21076.046             0.9791835973  7.2292610E-05     0.97917913               696.8              1
     651.2         474382891.3         21876.41180         484467734.3         22105.70597      21684.676      21915.958             0.9791836642  6.9986859E-05     0.97919180               697.8              1
     652.1         482670449.5         22065.01646         492931498.9         22296.32259      21874.919      22108.197             0.9791836199  6.9485849E-05     0.97895709               698.8              1
     653.0         490021164.4         22230.96189         500438499.4         22464.03796      22042.284      22277.317             0.9791835858  6.9052875E-05     0.97919572               699.8              1
     654.0         494973959.4         22342.07827         505496589.7         22576.33920      22154.338      22390.547             0.9791835780  6.8766973E-05     0.97913659               700.8              1
     654.9         490865200.6         22249.93714         501300447.6         22483.21484      22061.420      22296.653             0.9791836472  6.9003831E-05     0.97908937               701.8              1
     655.8         485938352.7         22138.94430         496268873.6         22371.03877      21949.482      22183.542             0.9791836212  6.9292067E-05     0.97915552               702.8              1
     656.8         476094533.7         21915.49762         486215769.8         22145.20878      21724.103      21955.800             0.9791836533  6.9882241E-05     0.97920455               703.8              1
     657.7         516172023.8         22811.54370         527145297.8         23050.80909      22627.667      22868.841             0.9791835874  6.7593366E-05     0.97912051               704.8              1
     658.6         530433322.6         23122.02034         541709793.4         23364.59491      22940.613      23185.071             0.9791835574  6.6846472E-05     0.97920063               705.8              1
     659.6         522416619.3         22948.00909         533522608.9         23188.72810      22765.226      23007.843             0.9791836571  6.7262297E-05     0.97914625               706.8              1
     660.5         543491242.1         23402.68669         555045297.4         23648.25151      23223.455      23470.881             0.9791835813  6.6190393E-05     0.97927068               707.8              1
     661.4         548898062.3         23517.92007         560566988.2         23764.71103      23339.567      23588.210             0.9791837084  6.5926121E-05     0.97918301               708.8              1
     662.4         559885130.2         23750.36067         571787681.0         23999.62881      23573.753      23824.855             0.9791836179  6.5401784E-05     0.97908095               709.8              1
     663.3         549731786.6         23535.63869         561418524.0         23782.62025      23357.420      23606.252             0.9791835558  6.5885730E-05     0.97914973               710.8              1
     664.2         565547237.0         23869.26348         577570115.7         24119.79722      23693.535      23945.894             0.9791836897  6.5138009E-05     0.97916719               711.8              1
     665.2         579794005.4         24165.85416         592119813.1         24419.54781      23992.283      24247.780             0.9791835919  6.4492745E-05     0.97910243               712.8              1
     666.1         580902066.6         24188.76947         593251377.4         24442.70606      24015.362      24271.101             0.9791836795  6.4443639E-05     0.97910107               713.8              1
     667.0         584950828.9         24272.31614         597386250.8         24527.14318      24099.506      24356.128             0.9791836155  6.4265458E-05     0.97914301               714.8              1
     668.0         586584194.6         24305.93953         599054302.0         24561.12383      24133.368      24390.346             0.9791836777  6.4194146E-05     0.97927417               715.8              1
     668.9         607245772.0         24727.31837         620155072.9         24986.98811      24557.688      24819.121             0.9791837535  6.3318908E-05     0.97910274               716.8              1
     669.8         598525515.5         24550.35677         611249469.9         24808.14326      24379.504      24639.066             0.9791836966  6.3682340E-05     0.97922062               717.8              1
     670.8         606424971.1         24710.71575         619316862.2         24970.20954      24540.972      24802.229             0.9791836910  6.3352751E-05     0.97923271               718.8              1
     671.7         598407799.1         24547.95920         611129342.9         24805.72202      24377.090      24636.628             0.9791835493  6.3687293E-05     0.97907236               719.8              1
     672.6         622531833.2         25034.50290         635766160.0         25297.44378      24866.954      25131.636             0.9791836565  6.2701783E-05     0.97918556               720.8              1
     673.6         630715803.7         25197.42657         644124093.7         25462.10116      25030.961      25297.366             0.9791836851  6.2381379E-05     0.97906469               721.8              1
     674.5         632086014.9         25224.60142         645523432.7         25489.56521      25058.315      25325.008             0.9791836871  6.2328392E-05     0.97933735               722.8              1
     675.4         635511375.6         25292.40751         649021646.3         25558.09360      25126.567      25393.977             0.9791836362  6.2196740E-05     0.97920919               723.8              1
     676.4         648611379.8         25550.06618         662400138.9         25818.49416      25385.898      25656.033             0.9791836410  6.1703696E-05     0.97924213               724.8              1
     677.3         641239974.1         25405.40250         654872112.8         25672.29275      25240.300      25508.906             0.9791835102  6.1979113E-05     0.97923995               725.8              1
     678.2         655221981.0         25679.10596         669151357.1         25948.90863      25515.763      25787.264             0.9791835197  6.1460974E-05     0.97911807               726.8              1
     679.2         658993861.9         25752.44384         673003322.6         26023.02489      25589.566      25861.841             0.9791836679  6.1324273E-05     0.97918451               727.8              1
     680.1         661135658.2         25793.99465         675190652.0         26065.01782      25631.379      25904.093             0.9791836665  6.1247207E-05     0.97923537               728.8              1
     681.0         664582379.2         25860.72082         678710694.7         26132.45485      25698.525      25971.946             0.9791835968  6.1124031E-05     0.97913959               729.8              1
     682.0         671614027.7         25996.31762         685891798.8         26269.49373      25834.968      26109.822             0.9791836392  6.0875945E-05     0.97915766               730.8              1
     682.9         680261029.5         26162.10105         694722607.0         26437.04047      26001.774      26278.380             0.9791836665  6.0576597E-05     0.97923142               731.8              1
     683.8         679308450.4         26143.88939         693749805.9         26418.63562      25983.450      26259.865             0.9791836260  6.0609267E-05     0.97917348               732.8              1
     684.8         678845553.0         26135.03501         693277065.2         26409.68700      25974.542      26250.863             0.9791836295  6.0625172E-05     0.97928874               733.8              1
     685.7         680150343.9         26159.98559         694609577.8         26434.90268      25999.645      26276.230             0.9791836532  6.0580389E-05     0.97926407               734.8              1
     686.6         695949188.1         26460.22846         710744228.5         26738.33822      26301.707      26581.466             0.9791837347  6.0049004E-05     0.97921967               735.8              1
     687.6         700265859.0         26541.67216         715152769.1         26820.65009      26383.638      26664.259             0.9791835944  5.9907207E-05     0.97922192               736.8              1
     688.5         694196298.0         26427.08459         708954242.4         26704.84496      26268.365      26547.776             0.9791835023  6.0106972E-05     0.97920060               737.8              1
     689.4         712263091.9         26766.72550         727405054.3         27048.09709      26610.020      26893.021             0.9791835892  5.9520517E-05     0.97913900               738.8              1
     690.4         716215565.1         26840.45579         731441495.8         27122.61045      26684.180      26967.961             0.9791836656  5.9395445E-05     0.97907660               739.8              1
     691.3         712017548.0         26762.13837         727154287.5         27043.46112      26605.406      26888.359             0.9791835931  5.9528325E-05     0.97920656               740.8              1
     692.2         711481328.9         26752.11825         726606618.2         27033.33350      26595.327      26878.173             0.9791836616  5.9545395E-05     0.97916362               741.8              1
     693.2         712371500.8         26768.75049         727515806.8         27050.14434      26612.057      26895.080             0.9791835368  5.9517067E-05     0.97918634               742.8              1
     694.1         721474369.2         26938.24180         736812123.9         27221.43688      26782.534      27067.349             0.9791836288  5.9230761E-05     0.97907956               743.8              1
     695.0         713098691.1         26782.32987         728258398.0         27063.86706      26625.715      26908.882             0.9791836154  5.9493982E-05     0.97925797               744.8              1
     696.0         730201187.8         27099.73597         745724489.9         27384.64884      26944.956      27231.479             0.9791835963  5.8961756E-05     0.97916622               745.8              1
     696.9         727831592.2         27055.98075         743304540.0         27340.42871      26900.950      27187.011             0.9791835688  5.9034276E-05     0.97921387               746.8              1
     697.8         708541431.3         26697.11470         723604246.5         26977.74543      26540.000      26822.265             0.9791836280  5.9639332E-05     0.97914666               747.8              1
     698.8         733943606.1         27168.69721         749546457.2         27454.34317      27014.310      27301.562             0.9791836105  5.8848000E-05     0.97910542               748.8              1
     699.7         734732266.1         27183.20746         750290253.6         27467.88590      27028.903      27315.180             0.9792640415  5.8829883E-05     0.97921802               749.8              1
     700.6         729199325.9         27081.24495         744566945.0         27363.50575      26926.359      27210.218             0.9793603260  5.9005011E-05     0.97944633               750.8              1
     701.6         722434380.9         26956.05466         737651205.0         27236.84466      26800.449      27082.844             0.9793712475  5.9214380E-05     0.97934355               751.8              1
     702.5         727884557.9         27056.95955         743245480.9         27339.34862      26901.935      27185.925             0.9793326385  5.9043320E-05     0.97937611               752.8              1
     703.4         739295418.3         27267.01158         754868873.7         27551.10480      27113.181      27398.860             0.9793693237  5.8700166E-05     0.97927937               753.8              1
     704.4         748725053.6         27439.37965         764496176.2         27725.27147      27286.515      27573.983             0.9793705671  5.8421025E-05     0.97936262               754.8              1
     705.3         755642467.6         27565.14048         771590901.3         27852.92450      27412.974      27702.330             0.9793304538  5.8216991E-05     0.97918846               755.8              1
     706.2         754644422.4         27547.03114         770542167.1         27834.09185      27394.764      27683.395             0.9793681054  5.8248488E-05     0.97923960               756.8              1
     707.2         746793580.1         27404.16177         762529079.7         27689.77396      27251.101      27538.292             0.9793640662  5.8477290E-05     0.97934325               757.8              1
     708.1         762176667.0         27683.40963         778237527.3         27971.98651      27531.893      27822.033             0.9793625213  5.8031941E-05     0.97938940               758.8              1
     709.0         743241731.1         27339.28004         758908596.3         27624.32078      27185.856      27472.480             0.9793560578  5.8581662E-05     0.97936583               759.8              1
     710.0         763394677.2         27705.39982         779481116.4         27994.20687      27554.003      27844.372             0.9793626312  5.7997323E-05     0.97938755               760.8              1
     710.9         754478963.2         27544.02776         770385479.7         27831.27704      27391.744      27680.565             0.9793525229  5.8252178E-05     0.97940798               761.8              1
     711.8         750455445.0         27470.89272         766282412.6         27757.46592      27318.204      27606.353             0.9793457773  5.8368657E-05     0.97929124               762.8              1
     712.8         747536840.8         27417.71950         763293767.8         27703.57865      27264.734      27552.172             0.9793566676  5.8454909E-05     0.97942014               763.8              1
     713.7         752222865.5         27503.04288         768083380.2         27789.88813      27350.532      27638.952             0.9793505299  5.8317491E-05     0.97930513               764.8              1
     714.6         740057896.7         27280.98969         755667979.5         27565.60323      27127.238      27413.439             0.9793426701  5.8675477E-05     0.97950522               765.8              1
     715.6         751391150.0         27487.91829         767244098.2         27774.78353      27335.324      27623.765             0.9793378036  5.8340804E-05     0.97928374               766.8              1
     716.5         749542171.7         27454.26513         765366527.8         27740.96303      27301.484      27589.761             0.9793244732  5.8393841E-05     0.97931483               767.8              1
     717.4         768559201.0         27798.44785         784785654.5         28088.79058      27647.558      27939.460             0.9793237129  5.7848784E-05     0.97933916               768.8              1
     718.4         748405049.7         27433.54792         764225656.1         27720.39246      27280.651      27569.078             0.9792985145  5.8425309E-05     0.97933090               769.8              1
     719.3         728459681.0         27067.58547         743824420.8         27349.93460      26912.621      27196.570             0.9793435933  5.9026465E-05     0.97946708               770.8              1
     720.2         758897748.7         27624.12443         774910263.7         27912.44822      27472.282      27762.175             0.9793362978  5.8123760E-05     0.97925938               771.8              1
     721.2         738910061.1         27259.94430         754522822.2         27544.82391      27106.074      27392.545             0.9793077682  5.8707322E-05     0.97924989               772.8              1
     722.1         763188573.0         27701.68000         779312510.0         27991.19526      27550.263      27841.344             0.9793100497  5.7999486E-05     0.97931155               773.8              1
     723.0         770869335.8         27839.96835         787160540.0         28131.03343      27689.304      27981.928             0.9793038352  5.7782691E-05     0.97929173               774.8              1
     724.0         772889398.0         27876.22464         789236715.0         28167.91112      27725.756      28019.000             0.9792871812  5.7725211E-05     0.97929756               775.8              1
     724.9         761818160.8         27676.93377         777901386.0         27965.97733      27525.382      27815.991             0.9793248535  5.8039504E-05     0.97939704               776.8              1
     725.8         761379971.8         27669.01650         777474848.1         27958.35027      27517.421      27808.323             0.9792985248  5.8050143E-05     0.97932137               777.8              1
     726.8         764138339.7         27718.81747         780293480.3         28008.71261      27567.494      27858.956             0.9792960712  5.7971559E-05     0.97935040               778.8              1
     727.7         763471212.9         27706.78103         779615439.0         27996.60588      27555.392      27846.784             0.9792920647  5.7990200E-05     0.97926320               779.8              1
     728.6         749393787.4         27451.56260         765221558.5         27738.35000      27298.766      27587.133             0.9793160936  5.8397589E-05     0.97932944               780.8              1
     729.6         740485773.9         27288.83061         756126390.6         27573.91689      27135.123      27421.798             0.9793148118  5.8660723E-05     0.97940239               781.8              1
     730.5         755275926.2         27558.49104         771258041.1         27846.94854      27406.287      27696.322             0.9792778629  5.8223870E-05     0.97934645               782.8              1
     731.4         754328168.3         27541.29028         770263879.6         27829.09236      27388.992      27678.369             0.9793113610  5.8253640E-05     0.97922743               783.8              1
     732.4         748219502.4         27430.16596         764029060.2         27716.84618      27277.250      27565.512             0.9793076485  5.8431398E-05     0.97938205               784.8              1
     733.3         746138974.9         27392.21563         761914182.1         27678.66839      27239.088      27527.126             0.9792952966  5.8491698E-05     0.97921665               785.8              1
     734.2         764163516.8         27719.27161         780313434.5         28009.06883      27567.951      27859.314             0.9793032940  5.7971352E-05     0.97933901               786.8              1
     735.2         756249597.7         27576.15092         772234926.7         27864.48329      27424.045      27713.951             0.9792999145  5.8197325E-05     0.97930483               787.8              1
     736.1         734577118.7         27180.35358         750104907.1         27464.51181      27026.032      27311.787             0.9792991777  5.8837077E-05     0.97939854               788.8              1
     737.0         753282983.0         27522.30886         769215011.5         27810.24116      27369.905      27659.415             0.9792879387  5.8282279E-05     0.97934251               789.8              1
     738.0         761319506.5         27667.92382         777420342.3         27957.37549      27516.322      27807.343             0.9792894077  5.8051227E-05     0.97928681               790.8              1
     738.9         721108899.2         26931.45747         736365029.1         27213.22346      26775.710      27059.089             0.9792818380  5.9249199E-05     0.97937313               791.8              1
     739.8         741058754.2         27299.32703         756740953.4         27585.05855      27145.678      27433.002             0.9792766612  5.8640926E-05     0.97926277               792.8              1
     740.8         735157598.7         27191.02978         750713443.5         27475.58817      27036.769      27322.925             0.9792785850  5.8818072E-05     0.97925250               793.8              1
     741.7         720455499.3         26919.32394         735700647.8         27201.01376      26763.506      27046.810             0.9792780549  5.9269302E-05     0.97916515               794.8              1
     742.6         731604142.7         27125.60865         747085125.8         27409.48062      26970.976      27256.450             0.9792781538  5.8925753E-05     0.97929084               795.8              1
     743.6         744511434.8         27362.49142         760267558.2         27648.90703      27209.198      27497.201             0.9792755547  5.8538347E-05     0.97932287               796.8              1
     744.5         721243623.6         26933.95859         736517698.9         27216.02838      26778.226      27061.910             0.9792617674  5.9243560E-05     0.97917143               797.8              1
     745.4         736900444.7         27223.05910         752502224.4         27508.12110      27068.980      27355.639             0.9792667993  5.8764714E-05     0.97924933               798.8              1
     746.4         727195200.3         27044.21754         742594625.6         27327.44276      26889.120      27173.952             0.9792626761  5.9059482E-05     0.97924742               799.8              1
     747.3         736433864.4         27214.48817         752031693.4         27499.56719      27060.361      27347.037             0.9792590803  5.8778204E-05     0.97923343               800.8              1
     748.2         734118573.7         27171.91704         749677967.5         27456.73814      27017.548      27303.970             0.9792452301  5.8847100E-05     0.97927647               801.8              1
     749.2         723714597.3         26979.79057         739051079.7         27262.53073      26824.322      27108.675             0.9792484134  5.9165849E-05     0.97922980               802.8              1
     750.1         715802954.9         26832.76834         730974714.7         27114.00407      26676.448      26959.305             0.9792444807  5.9412833E-05     0.97922931               803.8              1
     751.0         710369785.8         26731.33532         725429453.8         27011.55227      26574.422      26856.267             0.9792403411  5.9584936E-05     0.97913281               804.8              1
     752.0         723313772.2         26972.36130         738651058.1         27255.19327      26816.850      27101.296             0.9792360875  5.9177386E-05     0.97919138               805.8              1
     752.9         716811111.1         26851.54769         732014074.5         27133.16378      26695.337      26978.574             0.9792313237  5.9380129E-05     0.97925857               806.8              1
     753.8         723769303.9         26980.80440         739124401.4         27263.87543      26825.342      27110.027             0.9792252868  5.9162496E-05     0.97922669               807.8              1
     754.8         720771150.8         26925.18622         736066452.6         27207.73704      26769.403      27053.571             0.9792202161  5.9255299E-05     0.97920706               808.8              1
     755.7         707721300.0         26681.75035         722744206.8         26961.80092      26524.545      26806.229             0.9792140752  5.9667856E-05     0.97916620               809.8              1
     756.6         708821928.5         26702.36751         723873427.4         26982.73391      26545.284      26827.283             0.9792070018  5.9632033E-05     0.97930783               810.8              1
     757.6         707897205.0         26685.04651         722934106.5         26965.32233      26527.861      26809.771             0.9792001769  5.9661200E-05     0.97912616               811.8              1
     758.5         695853836.4         26458.42661         710640573.8         26736.39983      26299.895      26579.516             0.9791923824  6.0052783E-05     0.97925787               812.8              1
     759.4         703784026.8         26607.86592         718745999.6         26887.55291      26450.224      26731.551             0.9791832264  5.9792671E-05     0.97909314               813.8              1
     760.3         696243814.0         26465.79521         711051978.6         26744.09244      26307.308      26587.254             0.9791742867  6.0038592E-05     0.97924803               814.8              1
     761.3         697252438.9         26484.84361         712089664.4         26763.48569      26326.470      26606.761             0.9791638241  6.0004595E-05     0.97918561               815.8              1
     762.2         670698142.9         25978.69598         684979596.9         26252.12561      25817.237      26092.348             0.9791505411  6.0905568E-05     0.97914029               816.8              1
     763.1         698780208.0         26513.67025         713670801.0         26793.00847      26355.469      26636.456             0.9791352078  5.9952321E-05     0.97914010               817.8              1
     764.1         694601274.7         26434.74563         709417541.5         26713.51799      26276.072      26556.500             0.9791148851  6.0088546E-05     0.97913199               818.8              1
     765.0         689920673.8         26346.06566         704661007.6         26624.34055      26186.858      26466.797             0.9790816668  6.0241962E-05     0.97904524               819.8              1
     765.9         643692198.9         25453.61862         657506001.2         25723.53987      25288.829      25560.479             0.9789906065  6.1872377E-05     0.97899884               820.8              1
     766.9         639706982.1         25375.21397         653451011.6         25644.60009      25209.915      25481.037             0.9789670085  6.2020673E-05     0.97902774               821.8              1
     767.8         679512679.7         26147.79497         694041887.3         26424.16298      25987.380      26265.426             0.9790658060  6.0593576E-05     0.97898788               822.8              1
     768.7         673844010.8         26039.17266         688249140.6         26314.32391      25878.088      26154.924             0.9790698905  6.0789738E-05     0.97914135               823.8              1
     769.7         650816453.6         25593.18182         664799331.0         25864.91510      25429.290      25702.746             0.9789667697  6.1606018E-05     0.97890266               824.8              1
     770.6         660458554.3         25780.86609         674596110.3         26053.61035      25618.168      25892.615             0.9790429328  6.1261033E-05     0.97891760               825.8              1
     771.5         650472410.9         25586.45956         664351365.8         25856.25394      25422.525      25694.030             0.9791090144  6.1629361E-05     0.97907299               826.8              1
     772.5         646455923.6         25507.85027         660231491.5         25776.46201      25343.411      25613.736             0.9791352456  6.1780064E-05     0.97913040               827.8              1
     773.4         656825549.4         25710.31022         670810770.4         25980.86358      25547.165      25819.418             0.9791517644  6.1400323E-05     0.97917450               828.8              1
     774.3         648242561.7         25542.84760         662036409.8         25811.44924      25378.633      25648.944             0.9791645174  6.1715918E-05     0.97908346               829.8              1
     775.3         626844955.3         25120.49875         640176240.8         25384.45869      24953.523      25219.220             0.9791756010  6.2531463E-05     0.97919465               830.8              1
     776.2         649804346.7         25573.40120         663617680.3         25842.06227      25409.383      25679.749             0.9791848017  6.1659686E-05     0.97930092               831.8              1
     777.1         647157133.2         25521.59155         660908662.3         25789.59411      25357.240      25626.951             0.9791929961  6.1758333E-05     0.97920348               832.8              1
     778.1         633075757.0         25244.21239         646523151.9         25509.16804      25078.055      25344.737             0.9792004434  6.2291507E-05     0.97927659               833.8              1
     779.0         634050165.1         25263.50465         647513630.5         25528.57482      25097.475      25364.269             0.9792074410  6.2254564E-05     0.97916919               834.8              1
     779.9         628688844.6         25157.17287         642034258.7         25421.02989      24990.441      25256.029             0.9792138598  6.2462403E-05     0.97919220               835.8              1
     780.9         626688803.6         25117.39050         639988483.7         25380.76015      24950.395      25215.497             0.9792188758  6.2540874E-05     0.97922574               836.8              1
     781.8         626179770.4         25107.25537         639464853.2         25370.44255      24940.192      25205.112             0.9792246865  6.2561256E-05     0.97924575               837.8              1
     782.7         621829418.4         25020.47003         635018412.9         25282.66036      24852.827      25116.756             0.9792305321  6.2733188E-05     0.97930658               838.8              1
     783.7         596767000.7         24514.51616         609421985.9         24771.28353      24343.413      24601.954             0.9792344460  6.3760623E-05     0.97929356               839.8              1
     784.6         616639382.6         24916.53837         629712401.7         25177.50789      24748.196      25010.911             0.9792396988  6.2941037E-05     0.97916433               840.8              1
     785.5         606601210.9         24714.28156         619458282.7         24973.04116      24544.562      24805.080             0.9792446528  6.3350192E-05     0.97934287               841.8              1
     786.5         611303172.2         24809.22559         624257537.4         25068.94572      24640.155      24901.627             0.9792483639  6.3157651E-05     0.97936720               842.8              1
     787.4         602231909.1         24625.72661         614990816.8         24883.43463      24455.397      24714.869             0.9792534988  6.3532243E-05     0.97920437               843.8              1
     788.3         593735568.3         24452.60866         606313147.2         24708.45299      24281.073      24538.693             0.9792556388  6.3891255E-05     0.97929530               844.8              1
     789.3         590704872.3         24390.55912         603215223.0         24645.68370      24218.587      24475.492             0.9792605522  6.4021658E-05     0.97921594               845.8              1
     790.2         582921593.1         24230.47864         595265346.2         24483.86914      24057.370      24312.552             0.9792634442  6.4360791E-05     0.97921354               846.8              1
     791.1         573392722.5         24033.04443         585536799.6         24284.38390      23858.514      24111.660             0.9792599251  6.4785515E-05     0.97922318               847.8              1
     792.1         568033611.6         23921.28997         580057963.4         24171.31493      23745.944      23997.783             0.9792704305  6.5030420E-05     0.97915639               848.8              1
     793.0         563896930.3         23834.66871         575831153.4         24083.72179      23658.685      23909.558             0.9792747873  6.5221722E-05     0.97928531               849.8              1
     793.9         549943482.0         23540.13560         561580970.0         23786.03523      23361.950      23609.692             0.9792772750  6.5883057E-05     0.97927282               850.8              1
     794.9         542153942.0         23374.09771         553624999.8         23618.20276      23194.647      23440.607             0.9792800942  6.6264251E-05     0.97930225               851.8              1
     795.8         561113586.2         23776.20845         572983259.5         24024.52417      23599.793      23849.932             0.9792844327  6.5352254E-05     0.97932501               852.8              1
     796.7         561361272.8         23781.41659         573234963.7         24029.76208      23605.039      23855.208             0.9792865201  6.5340832E-05     0.97924956               853.8              1
     797.7         554727268.9         23641.52641         566459773.7         23888.37114      23464.105      23712.784             0.9792880177  6.5654239E-05     0.97926748               854.8              1
     798.6         553335596.8         23612.07528         565036596.8         23858.56447      23434.433      23682.758             0.9792916069  6.5721016E-05     0.97931110               855.8              1
     799.5         548846301.9         23516.81960         560450611.0         23762.26237      23338.458      23585.743             0.9792946803  6.5937596E-05     0.97929654               856.8              1
     800.5         535792634.4         23237.62329         547118789.8         23480.06158      23057.119      23301.421             0.9792985442  6.6583473E-05     0.97943463               857.8              1
     801.4         546057199.2         23457.44447         557600540.8         23702.21599      23278.631      23525.249             0.9792981879  6.6073723E-05     0.97922581               858.8              1
     802.3         540343332.0         23335.33445         551765441.8         23578.80285      23155.585      23400.910             0.9792989758  6.6355605E-05     0.97930172               859.8              1
     803.3         529069271.7         23092.50471         540249453.5         23333.32286      22910.866      23153.558             0.9793055196  6.6926520E-05     0.97939161               860.8              1
     804.2         532403700.2         23164.58940         543654357.7         23406.17140      22983.516      23226.966             0.9793054954  6.6755798E-05     0.97933104               861.8              1
     805.1         512051145.1         22721.03975         522869472.7         22957.87391      22536.431      22775.170             0.9793096974  6.7825897E-05     0.97926065               862.8              1
     806.1         525831701.6         23022.29796         536940336.1         23262.30509      22840.105      23081.992             0.9793112311  6.7094415E-05     0.97935410               863.8              1
     807.0         515303413.1         22792.49690         526188567.2         23030.04709      22608.467      22847.915             0.9793132068  6.7650694E-05     0.97926260               864.8              1
     807.9         510318041.8         22682.86895         521097164.1         22919.24227      22497.950      22736.230             0.9793145636  6.7920556E-05     0.97942866               865.8              1
     808.9         503329616.4         22528.29595         513960253.9         22763.01289      22342.108      22578.745             0.9793162264  6.8306033E-05     0.97943043               866.8              1
     809.8         493822072.6         22316.28496         504251561.0         22548.74859      22128.328      22362.729             0.9793168942  6.8844339E-05     0.97944529               867.8              1
     810.7         502300568.5         22505.44535         512913059.7         22739.99916      22319.068      22555.544             0.9793093761  6.8362925E-05     0.97934366               868.8              1
     811.7         496887822.3         22384.86820         507382530.2         22618.06871      22197.487      22432.620             0.9793159850  6.8668897E-05     0.97935312               869.8              1
     812.6         499378951.1         22440.44236         509953375.3         22674.82916      22253.525      22489.844             0.9792639391  6.8523291E-05     0.97911994               870.8              1
     813.5         495279365.9         22348.91201         505748294.0         22581.91303      22161.229      22396.167             0.9793001218  6.8759345E-05     0.97932551               871.8              1
     814.5         491511502.6         22264.45608         501911394.5         22496.79747      22076.062      22310.349             0.9792794266  6.8974488E-05     0.97917281               872.8              1
     815.4         484565697.5         22107.92164         494792295.7         22338.01239      21918.193      22150.238             0.9793315329  6.9385833E-05     0.97932843               873.8              1
     816.3         483409893.5         22081.76613         493616972.8         22311.68920      21891.813      22123.693             0.9793218631  6.9453630E-05     0.97934145               874.8              1
     817.3         482662313.8         22064.83210         492856804.6         22294.64749      21874.733      22106.508             0.9793155118  6.9497611E-05     0.97927471               875.8              1
     818.2         460940183.7         21566.98138         470683595.5         21791.69790      21372.494      21599.216             0.9792994446  7.0840139E-05     0.97942644               876.8              1
     819.1         463732634.4         21631.62353         473517293.8         21856.61904      21437.718      21664.709             0.9793362152  7.0664944E-05     0.97950840               877.8              1
     820.1         445743782.4         21211.74874         455149981.5         21432.32334      21014.004      21236.614             0.9793338471  7.1845187E-05     0.97939604               878.8              1
     821.0         456224093.8         21457.36693         465845939.0         21680.41607      21261.886      21486.946             0.9793454351  7.1149418E-05     0.97921222               879.8              1
     821.9         446927241.0         21239.62672         456354934.4         21460.41557      21042.142      21264.963             0.9793413137  7.1765859E-05     0.97940631               880.8              1
     822.9         459736034.3         21539.04678         469430565.0         21762.92873      21344.307      21570.193             0.9793483180  7.0921871E-05     0.97931553               881.8              1
     823.8         452343737.0         21366.75546         461885464.0         21588.88524      21170.446      21394.595             0.9793417897  7.1404077E-05     0.97940584               882.8              1
     824.7         454151802.5         21409.02390         463727947.1         21631.51518      21213.102      21437.608             0.9793496494  7.1285526E-05     0.97945651               883.8              1
     825.7         451840864.2         21354.98457         461402143.6         21577.68861      21158.567      21383.298             0.9792777740  7.1431739E-05     0.97948532               884.8              1
     826.6         451596994.3         21349.27391         461146354.8         21571.76063      21152.803      21377.317             0.9792921262  7.1449172E-05     0.97921879               885.7              1
     827.5         446148692.1         21221.29106         455552145.9         21441.70347      21023.636      21246.080             0.9793581178  7.1819931E-05     0.97946637               886.8              1
     828.5         445317043.6         21201.68733         454703790.7         21421.91151      21003.849      21226.107             0.9793563473  7.1876108E-05     0.97949191               887.8              1
     829.4         437002835.1         21004.69798         446227906.3         21223.15736      20805.004      21025.519             0.9793265481  7.2446017E-05     0.97922714               888.7              1
     830.3         432421000.9         20895.34644         441533243.8         21112.26529      20694.608      20913.589             0.9793622723  7.2772244E-05     0.97940352               889.8              1
     831.3         422867622.8         20665.48148         431783068.9         20880.07593      20462.510      20679.191             0.9793520247  7.3462757E-05     0.97938768               890.8              1
     832.2         428609010.7         20803.93022         437641503.7         21019.89547      20602.310      20820.346             0.9793609772  7.3045077E-05     0.97921990               891.7              1
     833.1         402776313.8         20173.51769         411263648.5         20382.79055      19965.596      20177.004             0.9793627891  7.5002520E-05     0.97950937               892.8              1
     834.1         417155563.5         20526.81333         425941843.0         20739.72866      20322.471      20537.484             0.9793721147  7.3890033E-05     0.97937102               893.8              1
     835.0         408052795.5         20303.87395         416647534.7         20514.43484      20097.288      20309.969             0.9793716788  7.4587543E-05     0.97928771               894.7              1
     835.9         416390674.5         20508.17341         425164164.6         20720.97166      20303.645      20518.544             0.9793644649  7.3947011E-05     0.97941374               895.8              1
     836.9         406845331.6         20274.11733         415413989.7         20484.34748      20067.228      20279.581             0.9793732077  7.4682077E-05     0.97942436               896.8              1
     837.8         408670070.2         20319.06918         417283156.6         20529.92106      20112.637      20325.609             0.9793591325  7.4538303E-05     0.97942889               897.7              1
     838.7         380691626.4         19618.51494         388709367.6         19821.80288      19404.712      19610.192             0.9793734295  7.6842548E-05     0.97949418               898.7              1
     839.7         402927610.9         20177.26723         411411764.9         20386.42359      19969.385      20180.674             0.9793779499  7.4991883E-05     0.97939134               899.7              1
     840.6         400776373.3         20123.88817         409219011.8         20332.57273      19915.454      20126.278             0.9793688995  7.5162963E-05     0.97922249               900.8              1
     841.5         396799057.8         20024.82359         405155384.3         20232.39695      19815.358      20025.081             0.9793750080  7.5485288E-05     0.97926061               901.8              1
     842.5         386770997.1         19772.84752         394923964.9         19977.94952      19560.713      19767.993             0.9793556014  7.6317983E-05     0.97943200               902.7              1
     843.4         384765197.5         19722.06124         392866739.7         19926.39560      19509.381      19715.896             0.9793783965  7.6491202E-05     0.97932775               903.8              1
     844.3         384414257.9         19713.16210         392505756.0         19917.33562      19500.385      19706.740             0.9793850206  7.6521906E-05     0.97936555               904.8              1
     845.3         388325483.5         19812.11714         396517154.4         20017.78350      19600.403      19808.245             0.9793409420  7.6184997E-05     0.97928232               905.7              1
     846.2         386329861.8         19761.68930         394471814.6         19966.63008      19549.435      19756.554             0.9793598618  7.6355886E-05     0.97931166               906.8              1
     847.1         369314681.5         19326.38568         377088251.5         19526.46290      19109.351      19311.652             0.9793852767  7.7858778E-05     0.97940668               907.8              1
     848.1         379709852.6         19593.47735         387699972.6         19796.32478      19379.401      19584.442             0.9793909709  7.6929908E-05     0.97941447               908.7              1
     849.0         377796291.0         19544.58475         385747172.2         19746.94088      19329.973      19534.528             0.9793883617  7.7097692E-05     0.97935233               909.8              1
     849.9         327126197.0         18202.21687         334008892.0         18390.30707      17971.778      18162.225             0.9793936774  8.2103637E-05     0.97949763               910.8              1
     850.9         367316515.4         19274.62107         375048536.4         19474.16336      19057.003      19258.775             0.9793839456  7.8042077E-05     0.97931795               911.7              1
     851.8         345180670.2         18691.58025         352443164.7         18884.85284      18467.174      18662.744             0.9793938563  8.0186833E-05     0.97944585               912.8              1
     852.7         345025924.6         18687.44034         352284267.6         18880.64537      18462.985      18658.487             0.9793963465  8.0202832E-05     0.97937457               913.8              1
     853.7         283903810.1         16973.45905         289874905.8         17148.45205      16726.338      16903.853             0.9794011293  8.7458064E-05     0.97923572               914.7              1
     854.6         181327365.2         13620.64122         185140945.7         13759.92179      13312.689      13455.087             0.9794017445  0.00010758326     0.97933617               915.7              1
     855.5         312274642.0         17789.57965         318844732.2         17973.29225      17553.795      17739.918             0.9793940763  8.3810644E-05     0.97938734               916.7              1
     856.5         344076961.5         18662.03267         351322883.3         18855.16866      18437.271      18632.710             0.9793753207  8.0297574E-05     0.97946691               917.8              1
     857.4         349637623.2         18810.42597         356991050.0         19004.88232      18587.438      18784.176             0.9794016495  7.9738691E-05     0.97942020               918.8              1
     858.3         347835383.3         18762.45947         355150073.5         18956.38614      18538.901      18735.115             0.9794039458  7.9919347E-05     0.97944307               919.7              1
     859.3         349627914.0         18810.16789         356989978.6         19004.85413      18587.177      18784.147             0.9793773912  7.9737257E-05     0.97941916               920.8              1
     860.2         345489491.7         18699.83940         352758514.8         18893.20028      18475.533      18671.189             0.9793937698  8.0155423E-05     0.97949547               921.7              1
     861.1         339477717.5         18538.39852         346618846.3         18730.01197      18312.138      18506.066             0.9793977482  8.0775221E-05     0.97943820               922.7              1
     862.1         340105940.3         18555.33460         347259657.6         18747.11070      18329.281      18523.369             0.9793995152  8.0709861E-05     0.97926457               923.9              1
     863.0         341984180.3         18605.87763         349176801.6         18798.17288      18380.438      18575.039             0.9794012051  8.0515225E-05     0.97946864               924.8              1
     863.9         338283846.6         18506.17055         345397956.8         18697.39176      18279.516      18473.056             0.9794031491  8.0900844E-05     0.97947780               925.7              1
     864.9         332669951.3         18353.86753         339667048.1         18543.50426      18125.332      18317.306             0.9794001305  8.1498208E-05     0.97940798               926.8              1
     865.8         315808746.4         17888.63462         322449714.2         18073.30120      17654.156      17841.218             0.9794046404  8.3394051E-05     0.97943459               927.7              1
     866.7         268818345.5         16523.10042         274471546.6         16693.29352      16269.244      16442.025             0.9794033256  8.9641208E-05     0.97917530               928.7              1
     867.7         315481912.6         17879.49704         322112602.0         18063.97254      17644.899      17831.770             0.9794149954  8.3433444E-05     0.97939211               929.9              1
     868.6         313372592.1         17820.41229         319957614.5         18004.22496      17585.036      17771.252             0.9794190790  8.3682687E-05     0.97941559               930.7              1
     869.5         309334242.2         17706.74290         315833521.8         17889.32709      17469.856      17654.858             0.9794218184  8.4166814E-05     0.97933077               931.7              1
     870.5         318702776.1         17969.34273         325400492.9         18154.75130      17735.917      17923.710             0.9794170048  8.3058752E-05     0.97943313               932.8              1
     871.4         314179197.4         17843.02944         320780959.9         18027.07580      17607.952      17794.398             0.9794197184  8.3587293E-05     0.97940519               933.7              1
     872.3         317331493.5         17931.14596         323998442.0         18116.09627      17697.223      17884.562             0.9794228996  8.3218240E-05     0.97928041               934.8              1
     873.3         315425230.6         17877.91186         322051668.0         18062.28585      17643.293      17830.062             0.9794243034  8.3441063E-05     0.97937783               935.8              1
     874.2         305495300.4         17598.00564         311914093.6         17779.44306      17359.655      17543.524             0.9794212790  8.4636059E-05     0.97937257               936.7              1
